Freq[Hz]     dBSPL  Phase[Deg]
5.00000      0.531     0.926
5.07273      0.531     0.940
5.14651      0.531     0.953
5.22137      0.531     0.967
5.29732      0.531     0.981
5.37437      0.532     0.996
5.45254      0.532     1.010
5.53185      0.532     1.025
5.61231      0.532     1.040
5.69394      0.532     1.055
5.77676      0.532     1.070
5.86079      0.532     1.086
5.94604      0.532     1.101
6.03252      0.532     1.117
6.12027      0.532     1.134
6.20929      0.533     1.150
6.29961      0.533     1.167
6.39124      0.533     1.184
6.48420      0.533     1.201
6.57851      0.533     1.218
6.67420      0.533     1.236
6.77128      0.533     1.254
6.86977      0.533     1.272
6.96969      0.534     1.291
7.07107      0.534     1.310
7.17392      0.534     1.329
7.27827      0.534     1.348
7.38413      0.534     1.367
7.49154      0.534     1.387
7.60050      0.535     1.407
7.71105      0.535     1.428
7.82321      0.535     1.449
7.93701      0.535     1.470
8.05245      0.535     1.491
8.16958      0.536     1.513
8.28841      0.536     1.535
8.40896      0.536     1.557
8.53128      0.536     1.579
8.65537      0.536     1.602
8.78126      0.537     1.626
8.90899      0.537     1.649
9.03857      0.537     1.673
9.17004      0.537     1.697
9.30342      0.538     1.722
9.43874      0.538     1.747
9.57603      0.538     1.772
9.71532      0.538     1.798
9.85663      0.539     1.824
10.0000      0.539     1.851
10.1455      0.539     1.877
10.2930      0.540     1.905
10.4427      0.540     1.932
10.5946      0.540     1.960
10.7487      0.541     1.989
10.9051      0.541     2.018
11.0637      0.541     2.047
11.2246      0.542     2.077
11.3879      0.542     2.107
11.5535      0.543     2.137
11.7216      0.543     2.168
11.8921      0.543     2.200
12.0650      0.544     2.231
12.2405      0.544     2.264
12.4186      0.545     2.297
12.5992      0.545     2.330
12.7825      0.546     2.364
12.9684      0.546     2.398
13.1570      0.547     2.432
13.3484      0.547     2.468
13.5426      0.548     2.503
13.7395      0.548     2.540
13.9394      0.549     2.576
14.1421      0.550     2.614
14.3478      0.550     2.651
14.5565      0.551     2.690
14.7683      0.552     2.729
14.9831      0.552     2.768
15.2010      0.553     2.808
15.4221      0.554     2.849
15.6464      0.554     2.890
15.8740      0.555     2.932
16.1049      0.556     2.974
16.3392      0.557     3.017
16.5768      0.557     3.060
16.8179      0.558     3.105
17.0626      0.559     3.149
17.3107      0.560     3.195
17.5625      0.561     3.241
17.8180      0.562     3.288
18.0771      0.563     3.335
18.3401      0.564     3.383
18.6068      0.565     3.432
18.8775      0.566     3.481
19.1521      0.567     3.531
19.4306      0.568     3.582
19.7133      0.569     3.634
20.0000      0.571     3.686
20.2909      0.572     3.739
20.5860      0.573     3.793
20.8855      0.574     3.847
21.1893      0.576     3.902
21.4975      0.577     3.958
21.8102      0.579     4.015
22.1274      0.580     4.073
22.4492      0.582     4.131
22.7758      0.583     4.191
23.1071      0.585     4.251
23.4432      0.586     4.312
23.7841      0.588     4.373
24.1301      0.590     4.436
24.4811      0.591     4.499
24.8372      0.593     4.564
25.1984      0.595     4.629
25.5649      0.597     4.695
25.9368      0.599     4.762
26.3141      0.601     4.830
26.6968      0.603     4.899
27.0851      0.605     4.969
27.4791      0.608     5.040
27.8788      0.610     5.111
28.2843      0.612     5.184
28.6957      0.615     5.258
29.1131      0.617     5.332
29.5365      0.620     5.408
29.9661      0.622     5.485
30.4020      0.625     5.563
30.8442      0.628     5.641
31.2929      0.631     5.721
31.7480      0.634     5.802
32.2098      0.637     5.884
32.6783      0.640     5.967
33.1536      0.643     6.052
33.6359      0.646     6.137
34.1251      0.650     6.223
34.6215      0.653     6.311
35.1250      0.657     6.400
35.6359      0.661     6.489
36.1543      0.664     6.581
36.6802      0.668     6.673
37.2137      0.672     6.766
37.7550      0.677     6.861
38.3041      0.681     6.957
38.8613      0.685     7.054
39.4265      0.690     7.152
40.0000      0.694     7.252
40.5818      0.699     7.352
41.1721      0.704     7.454
41.7710      0.709     7.558
42.3785      0.714     7.662
42.9949      0.719     7.768
43.6203      0.725     7.876
44.2548      0.730     7.984
44.8985      0.736     8.094
45.5515      0.742     8.205
46.2141      0.748     8.318
46.8863      0.754     8.432
47.5683      0.761     8.547
48.2602      0.767     8.663
48.9621      0.774     8.781
49.6743      0.781     8.901
50.3968      0.788     9.022
51.1299      0.796     9.144
51.8736      0.803     9.267
52.6281      0.811     9.392
53.3936      0.819     9.518
54.1702      0.827     9.646
54.9581      0.835     9.775
55.7575      0.844     9.906
56.5685      0.853    10.038
57.3914      0.862    10.171
58.2261      0.871    10.306
59.0730      0.881    10.442
59.9323      0.891    10.580
60.8040      0.901    10.719
61.6884      0.911    10.860
62.5857      0.922    11.002
63.4960      0.933    11.145
64.4196      0.944    11.290
65.3566      0.955    11.436
66.3073      0.967    11.583
67.2717      0.979    11.732
68.2502      0.992    11.883
69.2429      1.004    12.034
70.2501      1.017    12.187
71.2719      1.031    12.342
72.3086      1.044    12.497
73.3603      1.059    12.654
74.4274      1.073    12.813
75.5099      1.088    12.972
76.6083      1.103    13.133
77.7226      1.118    13.295
78.8531      1.134    13.459
80.0000      1.151    13.623
81.1636      1.167    13.789
82.3442      1.184    13.956
83.5419      1.202    14.124
84.7570      1.220    14.293
85.9899      1.238    14.463
87.2406      1.257    14.634
88.5096      1.276    14.806
89.7970      1.296    14.979
91.1031      1.316    15.153
92.4282      1.337    15.328
93.7726      1.358    15.504
95.1366      1.380    15.681
96.5204      1.402    15.858
97.9243      1.425    16.036
99.3486      1.448    16.215
100.794      1.471    16.394
102.260      1.496    16.574
103.747      1.520    16.754
105.256      1.545    16.935
106.787      1.571    17.116
108.340      1.598    17.298
109.916      1.625    17.479
111.515      1.652    17.661
113.137      1.680    17.843
114.783      1.709    18.025
116.452      1.738    18.207
118.146      1.768    18.389
119.865      1.799    18.571
121.608      1.830    18.752
123.377      1.861    18.933
125.171      1.894    19.114
126.992      1.927    19.294
128.839      1.960    19.473
130.713      1.995    19.652
132.615      2.029    19.830
134.543      2.065    20.007
136.500      2.101    20.183
138.486      2.138    20.358
140.500      2.176    20.532
142.544      2.214    20.704
144.617      2.253    20.875
146.721      2.292    21.044
148.855      2.332    21.212
151.020      2.373    21.378
153.217      2.415    21.542
155.445      2.457    21.704
157.706      2.500    21.864
160.000      2.543    22.022
162.327      2.588    22.178
164.688      2.633    22.331
167.084      2.678    22.481
169.514      2.724    22.629
171.980      2.771    22.773
174.481      2.819    22.915
177.019      2.867    23.054
179.594      2.916    23.189
182.206      2.966    23.321
184.856      3.016    23.450
187.545      3.067    23.575
190.273      3.118    23.696
193.041      3.170    23.813
195.849      3.223    23.926
198.697      3.276    24.035
201.587      3.330    24.140
204.520      3.385    24.240
207.494      3.440    24.336
210.512      3.495    24.426
213.574      3.552    24.513
216.681      3.608    24.594
219.833      3.666    24.669
223.030      3.723    24.740
226.274      3.782    24.805
229.565      3.841    24.865
232.905      3.900    24.919
236.292      3.960    24.968
239.729      4.020    25.010
243.216      4.080    25.046
246.754      4.141    25.077
250.343      4.203    25.101
253.984      4.265    25.118
257.678      4.327    25.129
261.426      4.389    25.133
265.229      4.452    25.131
269.087      4.515    25.122
273.001      4.578    25.106
276.972      4.641    25.082
281.000      4.705    25.052
285.088      4.769    25.014
289.234      4.833    24.969
293.441      4.897    24.916
297.709      4.962    24.855
302.040      5.026    24.787
306.433      5.090    24.712
310.890      5.155    24.628
315.412      5.219    24.536
320.000      5.283    24.437
324.655      5.348    24.329
329.377      5.412    24.213
334.168      5.476    24.089
339.028      5.540    23.956
343.959      5.603    23.816
348.962      5.667    23.666
354.038      5.730    23.509
359.188      5.793    23.343
364.412      5.855    23.168
369.713      5.917    22.985
375.090      5.979    22.793
380.546      6.040    22.593
386.081      6.100    22.384
391.697      6.161    22.166
397.394      6.220    21.940
403.175      6.279    21.705
409.039      6.337    21.462
414.989      6.394    21.210
421.025      6.451    20.950
427.149      6.507    20.681
433.362      6.562    20.404
439.665      6.616    20.118
446.060      6.669    19.825
452.548      6.721    19.523
459.131      6.772    19.213
465.809      6.822    18.894
472.584      6.871    18.569
479.458      6.918    18.235
486.432      6.965    17.894
493.507      7.010    17.545
500.686      7.053    17.189
507.968      7.095    16.827
515.357      7.136    16.457
522.853      7.175    16.081
530.458      7.213    15.698
538.174      7.249    15.310
546.002      7.283    14.916
553.943      7.316    14.516
562.001      7.346    14.111
570.175      7.375    13.702
578.469      7.402    13.288
586.883      7.427    12.871
595.419      7.450    12.450
604.080      7.471    12.026
612.866      7.489    11.599
621.780      7.506    11.171
630.824      7.520    10.741
640.000      7.532    10.311
649.309      7.542     9.881
658.753      7.550     9.451
668.335      7.555     9.023
678.056      7.558     8.596
687.919      7.558     8.173
697.925      7.556     7.754
708.077      7.551     7.339
718.376      7.544     6.930
728.825      7.535     6.528
739.426      7.523     6.133
750.181      7.509     5.747
761.093      7.492     5.371
772.163      7.473     5.006
783.394      7.452     4.653
794.789      7.429     4.313
806.349      7.404     3.987
818.078      7.377     3.677
829.977      7.348     3.384
842.050      7.317     3.108
854.298      7.285     2.852
866.724      7.252     2.615
879.330      7.218     2.400
892.120      7.183     2.206
905.097      7.148     2.035
918.262      7.112     1.887
931.618      7.077     1.763
945.169      7.042     1.663
958.917      7.008     1.587
972.864      6.976     1.534
987.015      6.945     1.505
1001.37      6.916     1.498
1015.94      6.890     1.511
1030.71      6.867     1.544
1045.71      6.847     1.594
1060.92      6.831     1.658
1076.35      6.819     1.735
1092.00      6.811     1.820
1107.89      6.808     1.911
1124.00      6.810     2.002
1140.35      6.816     2.091
1156.94      6.828     2.173
1173.77      6.844     2.243
1190.84      6.865     2.297
1208.16      6.890     2.330
1225.73      6.919     2.338
1243.56      6.952     2.318
1261.65      6.989     2.264
1280.00      7.028     2.174
1298.62      7.068     2.044
1317.51      7.110     1.872
1336.67      7.153     1.656
1356.11      7.194     1.395
1375.84      7.235     1.087
1395.85      7.273     0.733
1416.15      7.308     0.334
1436.75      7.340    -0.111
1457.65      7.366    -0.597
1478.85      7.386    -1.124
1500.36      7.400    -1.687
1522.19      7.406    -2.283
1544.33      7.403    -2.908
1566.79      7.392    -3.554
1589.58      7.370    -4.218
1612.70      7.338    -4.891
1636.16      7.295    -5.566
1659.95      7.241    -6.234
1684.10      7.174    -6.888
1708.60      7.096    -7.516
1733.45      7.005    -8.108
1758.66      6.903    -8.652
1784.24      6.789    -9.137
1810.19      6.664    -9.551
1836.52      6.529    -9.879
1863.24      6.385   -10.110
1890.34      6.235   -10.231
1917.83      6.080   -10.231
1945.73      5.923   -10.099
1974.03      5.768    -9.831
2002.74      5.617    -9.421
2031.87      5.475    -8.871
2061.43      5.345    -8.188
2091.41      5.232    -7.385
2121.83      5.139    -6.483
2152.69      5.069    -5.506
2184.01      5.025    -4.487
2215.77      5.007    -3.459
2248.00      5.015    -2.458
2280.70      5.047    -1.517
2313.87      5.100    -0.668
2347.53      5.170     0.068
2381.68      5.254     0.671
2416.32      5.346     1.134
2451.46      5.441     1.455
2487.12      5.535     1.638
2523.30      5.624     1.696
2560.00      5.704     1.643
2597.24      5.773     1.500
2635.01      5.829     1.289
2673.34      5.869     1.035
2712.23      5.895     0.761
2751.68      5.906     0.493
2791.70      5.904     0.253
2832.31      5.890     0.063
2873.50      5.867    -0.062
2915.30      5.839    -0.110
2957.70      5.810    -0.075
3000.72      5.783     0.043
3044.37      5.761     0.234
3088.65      5.749     0.483
3133.58      5.748     0.768
3179.16      5.761     1.064
3225.40      5.786     1.343
3272.31      5.823     1.579
3319.91      5.868     1.752
3368.20      5.920     1.845
3417.19      5.973     1.852
3466.89      6.024     1.773
3517.32      6.070     1.617
3568.48      6.107     1.400
3620.39      6.133     1.141
3673.05      6.148     0.864
3726.47      6.151     0.592
3780.67      6.143     0.346
3835.67      6.128     0.145
3891.46      6.107    -0.002
3948.06      6.084    -0.089
4005.49      6.062    -0.121
4063.75      6.043    -0.108
4122.86      6.030    -0.066
4182.82      6.022    -0.011
4243.66      6.023    -0.038
4305.39      6.022    -0.072
4368.01      6.021    -0.083
4431.55      6.020    -0.076
4496.01      6.023    -0.059
4561.40      6.028    -0.047
4627.75      6.037    -0.054
4695.06      6.046    -0.092
4763.35      6.054    -0.168
4832.64      6.057    -0.276
4902.93      6.054    -0.405
4974.24      6.041    -0.532
5046.60      6.021    -0.633
5120.00      5.993    -0.682
5194.47      5.962    -0.659
5270.03      5.933    -0.559
5346.68      5.910    -0.389
5424.45      5.897    -0.170
5503.35      5.898     0.063
5583.40      5.911     0.273
5664.61      5.934     0.429
5747.01      5.962     0.512
5830.60      5.989     0.519
5915.41      6.011     0.465
6001.45      6.026     0.376
6088.74      6.032     0.282
6177.30      6.032     0.207
6267.15      6.028     0.167
6358.31      6.024     0.162
6450.80      6.024     0.179
6544.62      6.028     0.198
6639.82      6.034     0.200
6736.40      6.042     0.174
6834.38      6.048     0.123
6933.79      6.050     0.059
7034.64      6.047    -0.003
7136.96      6.041    -0.046
7240.77      6.034    -0.064
7346.09      6.027    -0.059
7452.94      6.023    -0.041
7561.35      6.021    -0.020
7671.33      6.021    -0.002
7782.91      6.021    -0.014
7896.12      6.020    -0.030
8010.97      6.018    -0.048
8127.49      6.014    -0.063
8245.71      6.009    -0.064
8365.65      6.002    -0.040
8487.33      5.998     0.011
8610.78      5.999     0.076
8736.03      6.005     0.133
8863.09      6.015     0.160
8992.01      6.025     0.144
9122.80      6.032     0.096
9255.50      6.033     0.040
9390.12      6.029     0.004
9526.70      6.023     0.002
9665.27      6.021     0.025
9805.86      6.023     0.051
9948.49      6.028     0.056
10093.2      6.033     0.031
10240.0      6.034    -0.010
10388.9      6.030    -0.045
10540.1      6.025    -0.059
10693.4      6.020    -0.048
10848.9      6.018    -0.026
11006.7      6.019    -0.007
11166.8      6.020     0.000
11329.2      6.019     0.003
11494.0      6.018     0.012
11661.2      6.018     0.021
11830.8      6.019     0.031
12002.9      6.021     0.038
12177.5      6.024     0.036
12354.6      6.026     0.020
12534.3      6.026    -0.002
12716.6      6.024    -0.017
12901.6      6.021    -0.013
13089.2      6.020     0.004
13279.6      6.023     0.013
13472.8      6.026    -0.001
13668.8      6.025    -0.027
13867.6      6.021    -0.039
14069.3      6.018    -0.024
14273.9      6.018    -0.003
14481.5      6.020     0.003
14692.2      6.020     0.004
14905.9      6.021     0.008
15122.7      6.021     0.004
15342.7      6.021     0.008
15565.8      6.022     0.017
15792.2      6.026     0.006
16021.9      6.025    -0.028
16255.0      6.020    -0.043
16491.4      6.016    -0.017
16731.3      6.018     0.015
16974.7      6.022     0.013
17221.6      6.022    -0.006
17472.1      6.020    -0.008
17726.2      6.020     0.001
17984.0      6.021     0.001
18245.6      6.021     0.002
18511.0      6.021     0.003
18780.2      6.021     0.008
19053.4      6.024     0.002
19330.5      6.023    -0.023
19611.7      6.019    -0.029
19897.0      6.016    -0.002
20186.4      6.019     0.015
20480.0      6.021     0.006
20777.9      6.020     0.001
21080.1      6.021     0.004
21386.7      6.021     0.001
21697.8      6.021    -0.002
22013.4      6.021    -0.006
22333.6      6.020    -0.003
22658.4      6.020     0.003
22988.0      6.021     0.004
23322.4      6.021    -0.001
23661.6      6.020    -0.003
24005.8      6.020     0.002
24355.0      6.021     0.003
24709.2      6.021     0.001
25068.6      6.021     0.000
25433.2      6.021    -0.005
25803.2      6.020    -0.004
26178.5      6.020     0.003
26559.3      6.020     0.005
26945.6      6.021     0.007
27337.5      6.022     0.000
27735.2      6.021    -0.004
28138.6      6.021     0.000
28547.9      6.021     0.000
28963.1      6.020     0.000
29384.4      6.020     0.003
29811.8      6.021     0.003
30245.4      6.021    -0.002
30685.3      6.020    -0.006
31131.7      6.020     0.003
31584.5      6.021     0.000
32043.9      6.021    -0.001
32510.0      6.021     0.000
32982.8      6.020     0.001
33462.6      6.021     0.004
33949.3      6.021    -0.004
34443.1      6.021     0.000
34944.1      6.021    -0.001
35452.4      6.020     0.001
35968.0      6.021     0.000
36491.2      6.021     0.000
37022.0      6.021    -0.003
37560.5      6.020     0.000
38106.8      6.021     0.001
38661.1      6.021     0.000
39223.4      6.021    -0.001
39793.9      6.021    -0.001
